"70BCSV 	",
// AQ6370B OPTICAL SPECTRUM ANALYZER //                 ,
25,
CTRWL,1550
SPAN,100
START WL,1500
STOP WL,1600
WLFREQ,0
REFL,-30
LSCL,5
RESLN,0.2
AVG,1
SMPLAUTO,0
SMPL,5001
SMPLINTVL,0.02
HIGH1,
MEAS,
LSUNT,0
NMSKH,OFF
RESCOR,0
RESPARM,9417
FREQPARM,9417
,
,
,
,
,
,
[TRACE DATA],
1500,-58.703
1500.02,-58.683
1500.04,-58.68
1500.06,-58.68
1500.08,-58.679
1500.1,-58.663
1500.12,-58.667
1500.14,-58.648
1500.16,-58.658
1500.18,-58.656
1500.2,-58.639
1500.22,-58.641
1500.24,-58.637
1500.26,-58.627
1500.28,-58.617
1500.3,-58.614
1500.32,-58.605
1500.34,-58.605
1500.36,-58.606
1500.38,-58.598
1500.4,-58.595
1500.42,-58.581
1500.44,-58.579
1500.46,-58.584
1500.48,-58.565
1500.5,-58.56
1500.52,-58.537
1500.54,-58.551
1500.56,-58.535
1500.58,-58.546
1500.6,-58.529
1500.62,-58.525
1500.64,-58.512
1500.66,-58.52
1500.68,-58.512
1500.7,-58.505
1500.72,-58.498
1500.74,-58.485
1500.76,-58.494
1500.78,-58.47
1500.8,-58.473
1500.82,-58.471
1500.84,-58.471
1500.86,-58.457
1500.88,-58.442
1500.9,-58.442
1500.92,-58.438
1500.94,-58.439
1500.96,-58.412
1500.98,-58.416
1501,-58.418
1501.02,-58.405
1501.04,-58.41
1501.06,-58.395
1501.08,-58.379
1501.1,-58.39
1501.12,-58.376
1501.14,-58.363
1501.16,-58.368
1501.18,-58.35
1501.2,-58.348
1501.22,-58.341
1501.24,-58.336
1501.26,-58.33
1501.28,-58.348
1501.3,-58.317
1501.32,-58.308
1501.34,-58.304
1501.36,-58.304
1501.38,-58.31
1501.4,-58.297
1501.42,-58.294
1501.44,-58.278
1501.46,-58.282
1501.48,-58.257
1501.5,-58.272
1501.52,-58.254
1501.54,-58.244
1501.56,-58.244
1501.58,-58.23
1501.6,-58.238
1501.62,-58.229
1501.64,-58.234
1501.66,-58.203
1501.68,-58.212
1501.7,-58.194
1501.72,-58.205
1501.74,-58.193
1501.76,-58.18
1501.78,-58.172
1501.8,-58.18
1501.82,-58.173
1501.84,-58.173
1501.86,-58.155
1501.88,-58.155
1501.9,-58.143
1501.92,-58.142
1501.94,-58.127
1501.96,-58.14
1501.98,-58.12
1502,-58.121
1502.02,-58.097
1502.04,-58.099
1502.06,-58.08
1502.08,-58.087
1502.1,-58.075
1502.12,-58.063
1502.14,-58.056
1502.16,-58.044
1502.18,-58.055
1502.2,-58.048
1502.22,-58.039
1502.24,-58.036
1502.26,-58.029
1502.28,-58.015
1502.3,-58.017
1502.32,-57.996
1502.34,-58.008
1502.36,-58.005
1502.38,-57.985
1502.4,-57.983
1502.42,-57.965
1502.44,-57.962
1502.46,-57.967
1502.48,-57.963
1502.5,-57.942
1502.52,-57.951
1502.54,-57.935
1502.56,-57.931
1502.58,-57.926
1502.6,-57.916
1502.62,-57.917
1502.64,-57.907
1502.66,-57.903
1502.68,-57.888
1502.7,-57.883
1502.72,-57.871
1502.74,-57.887
1502.76,-57.862
1502.78,-57.845
1502.8,-57.855
1502.82,-57.838
1502.84,-57.836
1502.86,-57.826
1502.88,-57.826
1502.9,-57.806
1502.92,-57.811
1502.94,-57.799
1502.96,-57.791
1502.98,-57.788
1503,-57.775
1503.02,-57.767
1503.04,-57.763
1503.06,-57.762
1503.08,-57.75
1503.1,-57.738
1503.12,-57.738
1503.14,-57.738
1503.16,-57.726
1503.18,-57.715
1503.2,-57.717
1503.22,-57.711
1503.24,-57.698
1503.26,-57.695
1503.28,-57.684
1503.3,-57.683
1503.32,-57.677
1503.34,-57.67
1503.36,-57.66
1503.38,-57.647
1503.4,-57.642
1503.42,-57.641
1503.44,-57.632
1503.46,-57.624
1503.48,-57.62
1503.5,-57.614
1503.52,-57.609
1503.54,-57.595
1503.56,-57.59
1503.58,-57.58
1503.6,-57.572
1503.62,-57.572
1503.64,-57.559
1503.66,-57.561
1503.68,-57.554
1503.7,-57.531
1503.72,-57.543
1503.74,-57.529
1503.76,-57.518
1503.78,-57.503
1503.8,-57.504
1503.82,-57.503
1503.84,-57.503
1503.86,-57.489
1503.88,-57.476
1503.9,-57.474
1503.92,-57.468
1503.94,-57.456
1503.96,-57.448
1503.98,-57.45
1504,-57.432
1504.02,-57.436
1504.04,-57.416
1504.06,-57.416
1504.08,-57.41
1504.1,-57.398
1504.12,-57.397
1504.14,-57.391
1504.16,-57.378
1504.18,-57.38
1504.2,-57.377
1504.22,-57.355
1504.24,-57.346
1504.26,-57.338
1504.28,-57.332
1504.3,-57.331
1504.32,-57.326
1504.34,-57.317
1504.36,-57.312
1504.38,-57.301
1504.4,-57.297
1504.42,-57.287
1504.44,-57.29
1504.46,-57.271
1504.48,-57.27
1504.5,-57.258
1504.52,-57.253
1504.54,-57.245
1504.56,-57.232
1504.58,-57.215
1504.6,-57.216
1504.62,-57.22
1504.64,-57.202
1504.66,-57.198
1504.68,-57.206
1504.7,-57.196
1504.72,-57.179
1504.74,-57.181
1504.76,-57.175
1504.78,-57.165
1504.8,-57.161
1504.82,-57.147
1504.84,-57.137
1504.86,-57.137
1504.88,-57.122
1504.9,-57.113
1504.92,-57.106
1504.94,-57.098
1504.96,-57.082
1504.98,-57.087
1505,-57.083
1505.02,-57.068
1505.04,-57.059
1505.06,-57.057
1505.08,-57.048
1505.1,-57.033
1505.12,-57.024
1505.14,-57.026
1505.16,-57.02
1505.18,-57.008
1505.2,-56.992
1505.22,-56.993
1505.24,-56.98
1505.26,-56.971
1505.28,-56.975
1505.3,-56.956
1505.32,-56.943
1505.34,-56.938
1505.36,-56.937
1505.38,-56.93
1505.4,-56.922
1505.42,-56.909
1505.44,-56.895
1505.46,-56.889
1505.48,-56.891
1505.5,-56.875
1505.52,-56.869
1505.54,-56.862
1505.56,-56.848
1505.58,-56.838
1505.6,-56.833
1505.62,-56.818
1505.64,-56.816
1505.66,-56.82
1505.68,-56.794
1505.7,-56.8
1505.72,-56.789
1505.74,-56.773
1505.76,-56.772
1505.78,-56.769
1505.8,-56.748
1505.82,-56.748
1505.84,-56.735
1505.86,-56.729
1505.88,-56.719
1505.9,-56.721
1505.92,-56.706
1505.94,-56.697
1505.96,-56.694
1505.98,-56.68
1506,-56.681
1506.02,-56.664
1506.04,-56.663
1506.06,-56.653
1506.08,-56.638
1506.1,-56.639
1506.12,-56.632
1506.14,-56.631
1506.16,-56.61
1506.18,-56.615
1506.2,-56.603
1506.22,-56.592
1506.24,-56.584
1506.26,-56.586
1506.28,-56.57
1506.3,-56.562
1506.32,-56.565
1506.34,-56.539
1506.36,-56.547
1506.38,-56.528
1506.4,-56.521
1506.42,-56.517
1506.44,-56.502
1506.46,-56.498
1506.48,-56.49
1506.5,-56.49
1506.52,-56.476
1506.54,-56.462
1506.56,-56.454
1506.58,-56.455
1506.6,-56.44
1506.62,-56.439
1506.64,-56.421
1506.66,-56.416
1506.68,-56.409
1506.7,-56.41
1506.72,-56.392
1506.74,-56.384
1506.76,-56.375
1506.78,-56.362
1506.8,-56.367
1506.82,-56.359
1506.84,-56.336
1506.86,-56.333
1506.88,-56.329
1506.9,-56.321
1506.92,-56.307
1506.94,-56.294
1506.96,-56.289
1506.98,-56.284
1507,-56.278
1507.02,-56.264
1507.04,-56.263
1507.06,-56.247
1507.08,-56.25
1507.1,-56.237
1507.12,-56.227
1507.14,-56.226
1507.16,-56.21
1507.18,-56.202
1507.2,-56.194
1507.22,-56.184
1507.24,-56.179
1507.26,-56.172
1507.28,-56.166
1507.3,-56.161
1507.32,-56.152
1507.34,-56.135
1507.36,-56.132
1507.38,-56.119
1507.4,-56.115
1507.42,-56.108
1507.44,-56.091
1507.46,-56.082
1507.48,-56.084
1507.5,-56.068
1507.52,-56.057
1507.54,-56.059
1507.56,-56.042
1507.58,-56.033
1507.6,-56.026
1507.62,-56.01
1507.64,-56.009
1507.66,-55.994
1507.68,-55.983
1507.7,-55.976
1507.72,-55.962
1507.74,-55.958
1507.76,-55.963
1507.78,-55.946
1507.8,-55.935
1507.82,-55.924
1507.84,-55.916
1507.86,-55.906
1507.88,-55.898
1507.9,-55.893
1507.92,-55.883
1507.94,-55.869
1507.96,-55.868
1507.98,-55.854
1508,-55.852
1508.02,-55.841
1508.04,-55.838
1508.06,-55.822
1508.08,-55.822
1508.1,-55.808
1508.12,-55.801
1508.14,-55.789
1508.16,-55.785
1508.18,-55.77
1508.2,-55.765
1508.22,-55.755
1508.24,-55.748
1508.26,-55.742
1508.28,-55.73
1508.3,-55.727
1508.32,-55.718
1508.34,-55.704
1508.36,-55.705
1508.38,-55.694
1508.4,-55.684
1508.42,-55.67
1508.44,-55.664
1508.46,-55.658
1508.48,-55.649
1508.5,-55.636
1508.52,-55.624
1508.54,-55.625
1508.56,-55.607
1508.58,-55.605
1508.6,-55.59
1508.62,-55.585
1508.64,-55.57
1508.66,-55.567
1508.68,-55.556
1508.7,-55.551
1508.72,-55.537
1508.74,-55.534
1508.76,-55.528
1508.78,-55.515
1508.8,-55.505
1508.82,-55.495
1508.84,-55.494
1508.86,-55.482
1508.88,-55.468
1508.9,-55.461
1508.92,-55.45
1508.94,-55.445
1508.96,-55.432
1508.98,-55.429
1509,-55.415
1509.02,-55.404
1509.04,-55.403
1509.06,-55.387
1509.08,-55.386
1509.1,-55.374
1509.12,-55.367
1509.14,-55.356
1509.16,-55.349
1509.18,-55.337
1509.2,-55.322
1509.22,-55.32
1509.24,-55.309
1509.26,-55.303
1509.28,-55.289
1509.3,-55.285
1509.32,-55.273
1509.34,-55.264
1509.36,-55.261
1509.38,-55.248
1509.4,-55.235
1509.42,-55.225
1509.44,-55.214
1509.46,-55.208
1509.48,-55.195
1509.5,-55.186
1509.52,-55.174
1509.54,-55.166
1509.56,-55.155
1509.58,-55.142
1509.6,-55.129
1509.62,-55.128
1509.64,-55.115
1509.66,-55.102
1509.68,-55.093
1509.7,-55.088
1509.72,-55.082
1509.74,-55.07
1509.76,-55.053
1509.78,-55.05
1509.8,-55.043
1509.82,-55.031
1509.84,-55.021
1509.86,-55.011
1509.88,-55.004
1509.9,-54.991
1509.92,-54.984
1509.94,-54.974
1509.96,-54.967
1509.98,-54.962
1510,-54.955
1510.02,-54.943
1510.04,-54.936
1510.06,-54.927
1510.08,-54.91
1510.1,-54.902
1510.12,-54.894
1510.14,-54.881
1510.16,-54.873
1510.18,-54.858
1510.2,-54.844
1510.22,-54.839
1510.24,-54.826
1510.26,-54.821
1510.28,-54.808
1510.3,-54.792
1510.32,-54.781
1510.34,-54.766
1510.36,-54.758
1510.38,-54.752
1510.4,-54.736
1510.42,-54.725
1510.44,-54.718
1510.46,-54.706
1510.48,-54.697
1510.5,-54.68
1510.52,-54.674
1510.54,-54.667
1510.56,-54.651
1510.58,-54.637
1510.6,-54.627
1510.62,-54.623
1510.64,-54.61
1510.66,-54.596
1510.68,-54.584
1510.7,-54.575
1510.72,-54.565
1510.74,-54.552
1510.76,-54.541
1510.78,-54.533
1510.8,-54.518
1510.82,-54.512
1510.84,-54.498
1510.86,-54.493
1510.88,-54.48
1510.9,-54.469
1510.92,-54.46
1510.94,-54.453
1510.96,-54.436
1510.98,-54.431
1511,-54.421
1511.02,-54.408
1511.04,-54.393
1511.06,-54.388
1511.08,-54.373
1511.1,-54.362
1511.12,-54.346
1511.14,-54.338
1511.16,-54.327
1511.18,-54.319
1511.2,-54.303
1511.22,-54.293
1511.24,-54.283
1511.26,-54.275
1511.28,-54.262
1511.3,-54.255
1511.32,-54.238
1511.34,-54.229
1511.36,-54.221
1511.38,-54.208
1511.4,-54.189
1511.42,-54.185
1511.44,-54.169
1511.46,-54.158
1511.48,-54.146
1511.5,-54.137
1511.52,-54.123
1511.54,-54.115
1511.56,-54.096
1511.58,-54.093
1511.6,-54.083
1511.62,-54.07
1511.64,-54.059
1511.66,-54.04
1511.68,-54.034
1511.7,-54.021
1511.72,-54.012
1511.74,-53.999
1511.76,-53.986
1511.78,-53.976
1511.8,-53.966
1511.82,-53.957
1511.84,-53.944
1511.86,-53.934
1511.88,-53.924
1511.9,-53.908
1511.92,-53.9
1511.94,-53.887
1511.96,-53.88
1511.98,-53.868
1512,-53.853
1512.02,-53.843
1512.04,-53.835
1512.06,-53.823
1512.08,-53.812
1512.1,-53.795
1512.12,-53.783
1512.14,-53.776
1512.16,-53.761
1512.18,-53.756
1512.2,-53.742
1512.22,-53.728
1512.24,-53.719
1512.26,-53.708
1512.28,-53.692
1512.3,-53.685
1512.32,-53.671
1512.34,-53.658
1512.36,-53.646
1512.38,-53.636
1512.4,-53.624
1512.42,-53.61
1512.44,-53.595
1512.46,-53.593
1512.48,-53.574
1512.5,-53.559
1512.52,-53.553
1512.54,-53.539
1512.56,-53.523
1512.58,-53.513
1512.6,-53.501
1512.62,-53.487
1512.64,-53.478
1512.66,-53.465
1512.68,-53.452
1512.7,-53.437
1512.72,-53.434
1512.74,-53.42
1512.76,-53.408
1512.78,-53.396
1512.8,-53.383
1512.82,-53.375
1512.84,-53.361
1512.86,-53.347
1512.88,-53.339
1512.9,-53.323
1512.92,-53.313
1512.94,-53.302
1512.96,-53.29
1512.98,-53.272
1513,-53.262
1513.02,-53.248
1513.04,-53.24
1513.06,-53.231
1513.08,-53.214
1513.1,-53.2
1513.12,-53.188
1513.14,-53.174
1513.16,-53.163
1513.18,-53.147
1513.2,-53.139
1513.22,-53.124
1513.24,-53.111
1513.26,-53.104
1513.28,-53.093
1513.3,-53.071
1513.32,-53.06
1513.34,-53.048
1513.36,-53.037
1513.38,-53.025
1513.4,-53.01
1513.42,-52.998
1513.44,-52.982
1513.46,-52.971
1513.48,-52.962
1513.5,-52.945
1513.52,-52.929
1513.54,-52.919
1513.56,-52.907
1513.58,-52.899
1513.6,-52.883
1513.62,-52.87
1513.64,-52.858
1513.66,-52.843
1513.68,-52.833
1513.7,-52.819
1513.72,-52.807
1513.74,-52.795
1513.76,-52.788
1513.78,-52.77
1513.8,-52.758
1513.82,-52.75
1513.84,-52.731
1513.86,-52.724
1513.88,-52.711
1513.9,-52.689
1513.92,-52.679
1513.94,-52.669
1513.96,-52.653
1513.98,-52.641
1514,-52.628
1514.02,-52.614
1514.04,-52.596
1514.06,-52.58
1514.08,-52.573
1514.1,-52.556
1514.12,-52.544
1514.14,-52.535
1514.16,-52.522
1514.18,-52.505
1514.2,-52.492
1514.22,-52.482
1514.24,-52.467
1514.26,-52.454
1514.28,-52.439
1514.3,-52.424
1514.32,-52.412
1514.34,-52.395
1514.36,-52.385
1514.38,-52.369
1514.4,-52.356
1514.42,-52.339
1514.44,-52.329
1514.46,-52.317
1514.48,-52.303
1514.5,-52.29
1514.52,-52.276
1514.54,-52.265
1514.56,-52.248
1514.58,-52.238
1514.6,-52.225
1514.62,-52.209
1514.64,-52.198
1514.66,-52.189
1514.68,-52.168
1514.7,-52.158
1514.72,-52.147
1514.74,-52.131
1514.76,-52.12
1514.78,-52.103
1514.8,-52.09
1514.82,-52.078
1514.84,-52.063
1514.86,-52.052
1514.88,-52.032
1514.9,-52.019
1514.92,-52.003
1514.94,-51.995
1514.96,-51.976
1514.98,-51.961
1515,-51.947
1515.02,-51.934
1515.04,-51.919
1515.06,-51.905
1515.08,-51.886
1515.1,-51.873
1515.12,-51.86
1515.14,-51.846
1515.16,-51.831
1515.18,-51.813
1515.2,-51.801
1515.22,-51.785
1515.24,-51.77
1515.26,-51.754
1515.28,-51.738
1515.3,-51.728
1515.32,-51.713
1515.34,-51.696
1515.36,-51.675
1515.38,-51.669
1515.4,-51.656
1515.42,-51.639
1515.44,-51.625
1515.46,-51.615
1515.48,-51.6
1515.5,-51.582
1515.52,-51.566
1515.54,-51.553
1515.56,-51.541
1515.58,-51.522
1515.6,-51.512
1515.62,-51.493
1515.64,-51.485
1515.66,-51.467
1515.68,-51.455
1515.7,-51.439
1515.72,-51.423
1515.74,-51.411
1515.76,-51.392
1515.78,-51.376
1515.8,-51.365
1515.82,-51.351
1515.84,-51.331
1515.86,-51.317
1515.88,-51.3
1515.9,-51.283
1515.92,-51.267
1515.94,-51.252
1515.96,-51.235
1515.98,-51.22
1516,-51.2
1516.02,-51.184
1516.04,-51.168
1516.06,-51.15
1516.08,-51.133
1516.1,-51.115
1516.12,-51.098
1516.14,-51.086
1516.16,-51.07
1516.18,-51.054
1516.2,-51.036
1516.22,-51.017
1516.24,-51.004
1516.26,-50.991
1516.28,-50.974
1516.3,-50.956
1516.32,-50.945
1516.34,-50.924
1516.36,-50.906
1516.38,-50.889
1516.4,-50.873
1516.42,-50.854
1516.44,-50.837
1516.46,-50.821
1516.48,-50.801
1516.5,-50.784
1516.52,-50.773
1516.54,-50.752
1516.56,-50.736
1516.58,-50.721
1516.6,-50.701
1516.62,-50.682
1516.64,-50.664
1516.66,-50.645
1516.68,-50.628
1516.7,-50.61
1516.72,-50.595
1516.74,-50.578
1516.76,-50.563
1516.78,-50.542
1516.8,-50.525
1516.82,-50.509
1516.84,-50.493
1516.86,-50.472
1516.88,-50.457
1516.9,-50.438
1516.92,-50.42
1516.94,-50.401
1516.96,-50.381
1516.98,-50.364
1517,-50.345
1517.02,-50.331
1517.04,-50.311
1517.06,-50.292
1517.08,-50.277
1517.1,-50.256
1517.12,-50.241
1517.14,-50.223
1517.16,-50.204
1517.18,-50.186
1517.2,-50.17
1517.22,-50.155
1517.24,-50.136
1517.26,-50.116
1517.28,-50.098
1517.3,-50.08
1517.32,-50.059
1517.34,-50.046
1517.36,-50.023
1517.38,-50.007
1517.4,-49.991
1517.42,-49.969
1517.44,-49.954
1517.46,-49.932
1517.48,-49.916
1517.5,-49.898
1517.52,-49.882
1517.54,-49.861
1517.56,-49.843
1517.58,-49.828
1517.6,-49.809
1517.62,-49.787
1517.64,-49.768
1517.66,-49.744
1517.68,-49.723
1517.7,-49.701
1517.72,-49.68
1517.74,-49.66
1517.76,-49.643
1517.78,-49.617
1517.8,-49.599
1517.82,-49.58
1517.84,-49.56
1517.86,-49.538
1517.88,-49.512
1517.9,-49.492
1517.92,-49.474
1517.94,-49.452
1517.96,-49.437
1517.98,-49.41
1518,-49.385
1518.02,-49.366
1518.04,-49.344
1518.06,-49.324
1518.08,-49.301
1518.1,-49.281
1518.12,-49.259
1518.14,-49.236
1518.16,-49.217
1518.18,-49.196
1518.2,-49.176
1518.22,-49.154
1518.24,-49.131
1518.26,-49.113
1518.28,-49.091
1518.3,-49.069
1518.32,-49.048
1518.34,-49.027
1518.36,-49.006
1518.38,-48.984
1518.4,-48.964
1518.42,-48.941
1518.44,-48.919
1518.46,-48.897
1518.48,-48.874
1518.5,-48.851
1518.52,-48.833
1518.54,-48.81
1518.56,-48.783
1518.58,-48.762
1518.6,-48.738
1518.62,-48.719
1518.64,-48.689
1518.66,-48.666
1518.68,-48.642
1518.7,-48.62
1518.72,-48.598
1518.74,-48.576
1518.76,-48.552
1518.78,-48.527
1518.8,-48.502
1518.82,-48.477
1518.84,-48.451
1518.86,-48.427
1518.88,-48.402
1518.9,-48.381
1518.92,-48.355
1518.94,-48.334
1518.96,-48.309
1518.98,-48.283
1519,-48.258
1519.02,-48.233
1519.04,-48.209
1519.06,-48.184
1519.08,-48.157
1519.1,-48.133
1519.12,-48.114
1519.14,-48.088
1519.16,-48.054
1519.18,-48.03
1519.2,-48.004
1519.22,-47.98
1519.24,-47.95
1519.26,-47.927
1519.28,-47.903
1519.3,-47.874
1519.32,-47.849
1519.34,-47.823
1519.36,-47.801
1519.38,-47.773
1519.4,-47.749
1519.42,-47.725
1519.44,-47.7
1519.46,-47.669
1519.48,-47.645
1519.5,-47.62
1519.52,-47.585
1519.54,-47.561
1519.56,-47.54
1519.58,-47.509
1519.6,-47.476
1519.62,-47.451
1519.64,-47.422
1519.66,-47.392
1519.68,-47.361
1519.7,-47.334
1519.72,-47.307
1519.74,-47.281
1519.76,-47.25
1519.78,-47.222
1519.8,-47.193
1519.82,-47.167
1519.84,-47.135
1519.86,-47.102
1519.88,-47.076
1519.9,-47.046
1519.92,-47.022
1519.94,-46.989
1519.96,-46.959
1519.98,-46.932
1520,-46.897
1520.02,-46.873
1520.04,-46.839
1520.06,-46.808
1520.08,-46.78
1520.1,-46.747
1520.12,-46.715
1520.14,-46.685
1520.16,-46.654
1520.18,-46.623
1520.2,-46.594
1520.22,-46.564
1520.24,-46.535
1520.26,-46.504
1520.28,-46.475
1520.3,-46.441
1520.32,-46.407
1520.34,-46.38
1520.36,-46.348
1520.38,-46.316
1520.4,-46.285
1520.42,-46.253
1520.44,-46.222
1520.46,-46.189
1520.48,-46.16
1520.5,-46.13
1520.52,-46.092
1520.54,-46.061
1520.56,-46.03
1520.58,-45.999
1520.6,-45.963
1520.62,-45.931
1520.64,-45.897
1520.66,-45.862
1520.68,-45.83
1520.7,-45.796
1520.72,-45.763
1520.74,-45.726
1520.76,-45.695
1520.78,-45.659
1520.8,-45.621
1520.82,-45.588
1520.84,-45.555
1520.86,-45.52
1520.88,-45.488
1520.9,-45.452
1520.92,-45.414
1520.94,-45.379
1520.96,-45.342
1520.98,-45.303
1521,-45.27
1521.02,-45.236
1521.04,-45.202
1521.06,-45.163
1521.08,-45.131
1521.1,-45.094
1521.12,-45.053
1521.14,-45.017
1521.16,-44.983
1521.18,-44.946
1521.2,-44.911
1521.22,-44.878
1521.24,-44.838
1521.26,-44.803
1521.28,-44.766
1521.3,-44.733
1521.32,-44.692
1521.34,-44.657
1521.36,-44.624
1521.38,-44.582
1521.4,-44.548
1521.42,-44.512
1521.44,-44.473
1521.46,-44.432
1521.48,-44.395
1521.5,-44.359
1521.52,-44.316
1521.54,-44.28
1521.56,-44.245
1521.58,-44.207
1521.6,-44.167
1521.62,-44.124
1521.64,-44.083
1521.66,-44.043
1521.68,-44.007
1521.7,-43.971
1521.72,-43.931
1521.74,-43.894
1521.76,-43.852
1521.78,-43.812
1521.8,-43.774
1521.82,-43.735
1521.84,-43.695
1521.86,-43.657
1521.88,-43.616
1521.9,-43.576
1521.92,-43.537
1521.94,-43.498
1521.96,-43.461
1521.98,-43.423
1522,-43.383
1522.02,-43.344
1522.04,-43.304
1522.06,-43.265
1522.08,-43.227
1522.1,-43.186
1522.12,-43.145
1522.14,-43.102
1522.16,-43.062
1522.18,-43.022
1522.2,-42.982
1522.22,-42.943
1522.24,-42.902
1522.26,-42.863
1522.28,-42.818
1522.3,-42.778
1522.32,-42.739
1522.34,-42.698
1522.36,-42.66
1522.38,-42.613
1522.4,-42.572
1522.42,-42.534
1522.44,-42.49
1522.46,-42.447
1522.48,-42.404
1522.5,-42.364
1522.52,-42.321
1522.54,-42.279
1522.56,-42.236
1522.58,-42.194
1522.6,-42.15
1522.62,-42.106
1522.64,-42.063
1522.66,-42.022
1522.68,-41.981
1522.7,-41.94
1522.72,-41.9
1522.74,-41.858
1522.76,-41.816
1522.78,-41.774
1522.8,-41.731
1522.82,-41.689
1522.84,-41.648
1522.86,-41.609
1522.88,-41.566
1522.9,-41.523
1522.92,-41.482
1522.94,-41.439
1522.96,-41.397
1522.98,-41.356
1523,-41.314
1523.02,-41.274
1523.04,-41.233
1523.06,-41.195
1523.08,-41.152
1523.1,-41.109
1523.12,-41.066
1523.14,-41.026
1523.16,-40.983
1523.18,-40.942
1523.2,-40.903
1523.22,-40.864
1523.24,-40.824
1523.26,-40.777
1523.28,-40.733
1523.3,-40.689
1523.32,-40.652
1523.34,-40.61
1523.36,-40.564
1523.38,-40.52
1523.4,-40.478
1523.42,-40.436
1523.44,-40.394
1523.46,-40.353
1523.48,-40.312
1523.5,-40.27
1523.52,-40.231
1523.54,-40.188
1523.56,-40.138
1523.58,-40.1
1523.6,-40.063
1523.62,-40.013
1523.64,-39.973
1523.66,-39.931
1523.68,-39.893
1523.7,-39.85
1523.72,-39.809
1523.74,-39.766
1523.76,-39.726
1523.78,-39.683
1523.8,-39.642
1523.82,-39.602
1523.84,-39.561
1523.86,-39.519
1523.88,-39.48
1523.9,-39.435
1523.92,-39.395
1523.94,-39.35
1523.96,-39.309
1523.98,-39.276
1524,-39.235
1524.02,-39.195
1524.04,-39.153
1524.06,-39.107
1524.08,-39.064
1524.1,-39.019
1524.12,-38.991
1524.14,-38.953
1524.16,-38.913
1524.18,-38.872
1524.2,-38.819
1524.22,-38.774
1524.24,-38.732
1524.26,-38.697
1524.28,-38.655
1524.3,-38.618
1524.32,-38.579
1524.34,-38.54
1524.36,-38.496
1524.38,-38.461
1524.4,-38.419
1524.42,-38.38
1524.44,-38.342
1524.46,-38.305
1524.48,-38.265
1524.5,-38.212
1524.52,-38.184
1524.54,-38.139
1524.56,-38.098
1524.58,-38.06
1524.6,-38.02
1524.62,-37.984
1524.64,-37.942
1524.66,-37.901
1524.68,-37.861
1524.7,-37.824
1524.72,-37.781
1524.74,-37.74
1524.76,-37.703
1524.78,-37.664
1524.8,-37.621
1524.82,-37.588
1524.84,-37.546
1524.86,-37.505
1524.88,-37.464
1524.9,-37.426
1524.92,-37.394
1524.94,-37.355
1524.96,-37.317
1524.98,-37.278
1525,-37.24
1525.02,-37.198
1525.04,-37.158
1525.06,-37.128
1525.08,-37.094
1525.1,-37.057
1525.12,-37.014
1525.14,-36.97
1525.16,-36.928
