70BCSV 	
// AQ6370B OPTICAL SPECTRUM ANALYZER //                 
25
"CTRWL",1550.000000
"SPAN", 100.000000
"START WL",1500.000000
"STOP WL",1600.000000
"WLFREQ", 0
"REFL",-18.8
"LSCL", 5.0
"RESLN",0.200
"AVG",   1
"SMPLAUTO",      0
"SMPL",       5001
"SMPLINTVL",0.0200
"HIGH1"
"MEAS"
"LSUNT",0
"NMSKH","OFF"
"RESCOR",0
"RESPARM", 9417
"FREQPARM", 9417






"[TRACE DATA]"
1500.0000, -58.120
1500.0200, -58.122
1500.0400, -58.106
1500.0600, -58.097
1500.0800, -58.098
1500.1000, -58.090
1500.1200, -58.078
1500.1400, -58.078
1500.1600, -58.061
1500.1800, -58.062
1500.2000, -58.070
1500.2200, -58.047
1500.2400, -58.045
1500.2600, -58.040
1500.2800, -58.030
1500.3000, -58.026
1500.3200, -58.023
1500.3400, -58.017
1500.3600, -58.011
1500.3800, -58.008
1500.4000, -57.998
1500.4200, -58.000
1500.4400, -57.998
1500.4600, -57.988
1500.4800, -57.991
1500.5000, -57.974
1500.5200, -57.967
1500.5400, -57.956
1500.5600, -57.959
1500.5800, -57.956
1500.6000, -57.944
1500.6200, -57.941
1500.6400, -57.938
1500.6600, -57.944
1500.6800, -57.922
1500.7000, -57.923
1500.7200, -57.909
1500.7400, -57.901
1500.7600, -57.897
1500.7800, -57.890
1500.8000, -57.895
1500.8200, -57.888
1500.8400, -57.883
1500.8600, -57.862
1500.8800, -57.865
1500.9000, -57.861
1500.9200, -57.862
1500.9400, -57.856
1500.9600, -57.839
1500.9800, -57.830
1501.0000, -57.825
1501.0200, -57.826
1501.0400, -57.826
1501.0600, -57.813
1501.0800, -57.796
1501.1000, -57.798
1501.1200, -57.789
1501.1400, -57.782
1501.1600, -57.770
1501.1800, -57.778
1501.2000, -57.770
1501.2200, -57.763
1501.2400, -57.749
1501.2600, -57.747
1501.2800, -57.734
1501.3000, -57.739
1501.3200, -57.717
1501.3400, -57.719
1501.3600, -57.712
1501.3800, -57.717
1501.4000, -57.697
1501.4200, -57.697
1501.4400, -57.677
1501.4600, -57.692
1501.4800, -57.675
1501.5000, -57.666
1501.5200, -57.655
1501.5400, -57.660
1501.5600, -57.656
1501.5800, -57.648
1501.6000, -57.643
1501.6200, -57.633
1501.6400, -57.633
1501.6600, -57.622
1501.6800, -57.624
1501.7000, -57.611
1501.7200, -57.603
1501.7400, -57.590
1501.7600, -57.591
1501.7800, -57.586
1501.8000, -57.581
1501.8200, -57.571
1501.8400, -57.572
1501.8600, -57.570
1501.8800, -57.564
1501.9000, -57.552
1501.9200, -57.543
1501.9400, -57.539
1501.9600, -57.530
1501.9800, -57.518
1502.0000, -57.518
1502.0200, -57.510
1502.0400, -57.506
1502.0600, -57.489
1502.0800, -57.485
1502.1000, -57.476
1502.1200, -57.476
1502.1400, -57.470
1502.1600, -57.462
1502.1800, -57.459
1502.2000, -57.445
1502.2200, -57.425
1502.2400, -57.438
1502.2600, -57.432
1502.2800, -57.416
1502.3000, -57.409
1502.3200, -57.411
1502.3400, -57.399
1502.3600, -57.395
1502.3800, -57.384
1502.4000, -57.377
1502.4200, -57.374
1502.4400, -57.358
1502.4600, -57.364
1502.4800, -57.350
1502.5000, -57.351
1502.5200, -57.339
1502.5400, -57.331
1502.5600, -57.328
1502.5800, -57.318
1502.6000, -57.313
1502.6200, -57.305
1502.6400, -57.295
1502.6600, -57.295
1502.6800, -57.287
1502.7000, -57.273
1502.7200, -57.275
1502.7400, -57.264
1502.7600, -57.266
1502.7800, -57.258
1502.8000, -57.247
1502.8200, -57.241
1502.8400, -57.248
1502.8600, -57.227
1502.8800, -57.218
1502.9000, -57.209
1502.9200, -57.214
1502.9400, -57.191
1502.9600, -57.188
1502.9800, -57.184
1503.0000, -57.180
1503.0200, -57.170
1503.0400, -57.164
1503.0600, -57.155
1503.0800, -57.148
1503.1000, -57.146
1503.1200, -57.141
1503.1400, -57.126
1503.1600, -57.113
1503.1800, -57.112
1503.2000, -57.108
1503.2200, -57.097
1503.2400, -57.099
1503.2600, -57.087
1503.2800, -57.078
1503.3000, -57.071
1503.3200, -57.068
1503.3400, -57.049
1503.3600, -57.056
1503.3800, -57.051
1503.4000, -57.047
1503.4200, -57.030
1503.4400, -57.023
1503.4600, -57.016
1503.4800, -57.012
1503.5000, -57.001
1503.5200, -56.988
1503.5400, -56.987
1503.5600, -56.972
1503.5800, -56.978
1503.6000, -56.963
1503.6200, -56.960
1503.6400, -56.957
1503.6600, -56.944
1503.6800, -56.938
1503.7000, -56.931
1503.7200, -56.928
1503.7400, -56.914
1503.7600, -56.916
1503.7800, -56.905
1503.8000, -56.892
1503.8200, -56.899
1503.8400, -56.880
1503.8600, -56.884
1503.8800, -56.872
1503.9000, -56.863
1503.9200, -56.862
1503.9400, -56.853
1503.9600, -56.852
1503.9800, -56.839
1504.0000, -56.834
1504.0200, -56.820
1504.0400, -56.814
1504.0600, -56.809
1504.0800, -56.798
1504.1000, -56.797
1504.1200, -56.778
1504.1400, -56.779
1504.1600, -56.767
1504.1800, -56.747
1504.2000, -56.754
1504.2200, -56.749
1504.2400, -56.736
1504.2600, -56.726
1504.2800, -56.729
1504.3000, -56.709
1504.3200, -56.705
1504.3400, -56.703
1504.3600, -56.694
1504.3800, -56.686
1504.4000, -56.680
1504.4200, -56.678
1504.4400, -56.670
1504.4600, -56.657
1504.4800, -56.660
1504.5000, -56.644
1504.5200, -56.634
1504.5400, -56.622
1504.5600, -56.621
1504.5800, -56.618
1504.6000, -56.598
1504.6200, -56.598
1504.6400, -56.591
1504.6600, -56.581
1504.6800, -56.580
1504.7000, -56.572
1504.7200, -56.565
1504.7400, -56.556
1504.7600, -56.551
1504.7800, -56.547
1504.8000, -56.538
1504.8200, -56.532
1504.8400, -56.522
1504.8600, -56.516
1504.8800, -56.507
1504.9000, -56.495
1504.9200, -56.486
1504.9400, -56.490
1504.9600, -56.466
1504.9800, -56.468
1505.0000, -56.463
1505.0200, -56.458
1505.0400, -56.442
1505.0600, -56.434
1505.0800, -56.430
1505.1000, -56.425
1505.1200, -56.414
1505.1400, -56.408
1505.1600, -56.402
1505.1800, -56.391
1505.2000, -56.389
1505.2200, -56.373
1505.2400, -56.372
1505.2600, -56.361
1505.2800, -56.349
1505.3000, -56.345
1505.3200, -56.346
1505.3400, -56.323
1505.3600, -56.323
1505.3800, -56.310
1505.4000, -56.300
1505.4200, -56.305
1505.4400, -56.291
1505.4600, -56.280
1505.4800, -56.270
1505.5000, -56.265
1505.5200, -56.255
1505.5400, -56.247
1505.5600, -56.249
1505.5800, -56.229
1505.6000, -56.227
1505.6200, -56.215
1505.6400, -56.209
1505.6600, -56.199
1505.6800, -56.190
1505.7000, -56.186
1505.7200, -56.170
1505.7400, -56.161
1505.7600, -56.165
1505.7800, -56.145
1505.8000, -56.141
1505.8200, -56.133
1505.8400, -56.126
1505.8600, -56.109
1505.8800, -56.102
1505.9000, -56.102
1505.9200, -56.093
1505.9400, -56.088
1505.9600, -56.071
1505.9800, -56.066
1506.0000, -56.058
1506.0200, -56.043
1506.0400, -56.034
1506.0600, -56.042
1506.0800, -56.020
1506.1000, -56.013
1506.1200, -56.004
1506.1400, -55.992
1506.1600, -55.989
1506.1800, -55.983
1506.2000, -55.976
1506.2200, -55.967
1506.2400, -55.957
1506.2600, -55.960
1506.2800, -55.939
1506.3000, -55.939
1506.3200, -55.927
1506.3400, -55.921
1506.3600, -55.911
1506.3800, -55.903
1506.4000, -55.901
1506.4200, -55.889
1506.4400, -55.884
1506.4600, -55.867
1506.4800, -55.870
1506.5000, -55.850
1506.5200, -55.852
1506.5400, -55.850
1506.5600, -55.824
1506.5800, -55.826
1506.6000, -55.813
1506.6200, -55.807
1506.6400, -55.800
1506.6600, -55.785
1506.6800, -55.780
1506.7000, -55.773
1506.7200, -55.761
1506.7400, -55.758
1506.7600, -55.743
1506.7800, -55.739
1506.8000, -55.735
1506.8200, -55.728
1506.8400, -55.714
1506.8600, -55.703
1506.8800, -55.701
1506.9000, -55.683
1506.9200, -55.683
1506.9400, -55.670
1506.9600, -55.665
1506.9800, -55.656
1507.0000, -55.646
1507.0200, -55.646
1507.0400, -55.627
1507.0600, -55.624
1507.0800, -55.613
1507.1000, -55.607
1507.1200, -55.601
1507.1400, -55.587
1507.1600, -55.583
1507.1800, -55.575
1507.2000, -55.571
1507.2200, -55.549
1507.2400, -55.548
1507.2600, -55.545
1507.2800, -55.534
1507.3000, -55.527
1507.3200, -55.521
1507.3400, -55.510
1507.3600, -55.495
1507.3800, -55.488
1507.4000, -55.478
1507.4200, -55.472
1507.4400, -55.458
1507.4600, -55.454
1507.4800, -55.441
1507.5000, -55.436
1507.5200, -55.421
1507.5400, -55.412
1507.5600, -55.411
1507.5800, -55.396
1507.6000, -55.389
1507.6200, -55.376
1507.6400, -55.363
1507.6600, -55.362
1507.6800, -55.350
1507.7000, -55.343
1507.7200, -55.330
1507.7400, -55.319
1507.7600, -55.318
1507.7800, -55.306
1507.8000, -55.299
1507.8200, -55.280
1507.8400, -55.274
1507.8600, -55.269
1507.8800, -55.258
1507.9000, -55.250
1507.9200, -55.241
1507.9400, -55.227
1507.9600, -55.217
1507.9800, -55.212
1508.0000, -55.199
1508.0200, -55.192
1508.0400, -55.191
1508.0600, -55.179
1508.0800, -55.172
1508.1000, -55.155
1508.1200, -55.148
1508.1400, -55.144
1508.1600, -55.136
1508.1800, -55.123
1508.2000, -55.117
1508.2200, -55.103
1508.2400, -55.097
1508.2600, -55.094
1508.2800, -55.085
1508.3000, -55.072
1508.3200, -55.056
1508.3400, -55.057
1508.3600, -55.043
1508.3800, -55.041
1508.4000, -55.031
1508.4200, -55.021
1508.4400, -55.016
1508.4600, -55.001
1508.4800, -54.991
1508.5000, -54.983
1508.5200, -54.975
1508.5400, -54.963
1508.5600, -54.958
1508.5800, -54.953
1508.6000, -54.938
1508.6200, -54.932
1508.6400, -54.914
1508.6600, -54.905
1508.6800, -54.900
1508.7000, -54.892
1508.7200, -54.883
1508.7400, -54.877
1508.7600, -54.866
1508.7800, -54.852
1508.8000, -54.850
1508.8200, -54.846
1508.8400, -54.832
1508.8600, -54.823
1508.8800, -54.813
1508.9000, -54.815
1508.9200, -54.789
1508.9400, -54.791
1508.9600, -54.773
1508.9800, -54.769
1509.0000, -54.761
1509.0200, -54.753
1509.0400, -54.742
1509.0600, -54.735
1509.0800, -54.723
1509.1000, -54.716
1509.1200, -54.708
1509.1400, -54.698
1509.1600, -54.687
1509.1800, -54.674
1509.2000, -54.671
1509.2200, -54.655
1509.2400, -54.647
1509.2600, -54.642
1509.2800, -54.630
1509.3000, -54.617
1509.3200, -54.610
1509.3400, -54.598
1509.3600, -54.592
1509.3800, -54.584
1509.4000, -54.571
1509.4200, -54.568
1509.4400, -54.555
1509.4600, -54.543
1509.4800, -54.530
1509.5000, -54.520
1509.5200, -54.517
1509.5400, -54.508
1509.5600, -54.495
1509.5800, -54.490
1509.6000, -54.480
1509.6200, -54.465
1509.6400, -54.451
1509.6600, -54.447
1509.6800, -54.437
1509.7000, -54.427
1509.7200, -54.420
1509.7400, -54.408
1509.7600, -54.396
1509.7800, -54.394
1509.8000, -54.375
1509.8200, -54.373
1509.8400, -54.363
1509.8600, -54.349
1509.8800, -54.336
1509.9000, -54.331
1509.9200, -54.323
1509.9400, -54.312
1509.9600, -54.305
1509.9800, -54.292
1510.0000, -54.281
1510.0200, -54.271
1510.0400, -54.259
1510.0600, -54.249
1510.0800, -54.242
1510.1000, -54.234
1510.1200, -54.218
1510.1400, -54.206
1510.1600, -54.196
1510.1800, -54.186
1510.2000, -54.174
1510.2200, -54.167
1510.2400, -54.154
1510.2600, -54.142
1510.2800, -54.133
1510.3000, -54.124
1510.3200, -54.114
1510.3400, -54.100
1510.3600, -54.090
1510.3800, -54.078
1510.4000, -54.066
1510.4200, -54.056
1510.4400, -54.045
1510.4600, -54.036
1510.4800, -54.020
1510.5000, -54.011
1510.5200, -54.000
1510.5400, -53.988
1510.5600, -53.972
1510.5800, -53.965
1510.6000, -53.953
1510.6200, -53.939
1510.6400, -53.928
1510.6600, -53.912
1510.6800, -53.911
1510.7000, -53.898
1510.7200, -53.886
1510.7400, -53.870
1510.7600, -53.860
1510.7800, -53.850
1510.8000, -53.834
1510.8200, -53.824
1510.8400, -53.816
1510.8600, -53.809
1510.8800, -53.791
1510.9000, -53.782
1510.9200, -53.772
1510.9400, -53.755
1510.9600, -53.748
1510.9800, -53.740
1511.0000, -53.725
1511.0200, -53.713
1511.0400, -53.703
1511.0600, -53.694
1511.0800, -53.676
1511.1000, -53.669
1511.1200, -53.656
1511.1400, -53.643
1511.1600, -53.626
1511.1800, -53.619
1511.2000, -53.604
1511.2200, -53.598
1511.2400, -53.583
1511.2600, -53.575
1511.2800, -53.560
1511.3000, -53.555
1511.3200, -53.543
1511.3400, -53.529
1511.3600, -53.513
1511.3800, -53.503
1511.4000, -53.492
1511.4200, -53.484
1511.4400, -53.471
1511.4600, -53.458
1511.4800, -53.448
1511.5000, -53.434
1511.5200, -53.418
1511.5400, -53.407
1511.5600, -53.401
1511.5800, -53.386
1511.6000, -53.379
1511.6200, -53.357
1511.6400, -53.351
1511.6600, -53.336
1511.6800, -53.333
1511.7000, -53.315
1511.7200, -53.301
1511.7400, -53.288
1511.7600, -53.279
1511.7800, -53.269
1511.8000, -53.256
1511.8200, -53.249
1511.8400, -53.233
1511.8600, -53.221
1511.8800, -53.211
1511.9000, -53.203
1511.9200, -53.184
1511.9400, -53.176
1511.9600, -53.163
1511.9800, -53.149
1512.0000, -53.143
1512.0200, -53.128
1512.0400, -53.118
1512.0600, -53.107
1512.0800, -53.099
1512.1000, -53.078
1512.1200, -53.070
1512.1400, -53.057
1512.1600, -53.046
1512.1800, -53.036
1512.2000, -53.023
1512.2200, -53.017
1512.2400, -53.000
1512.2600, -52.990
1512.2800, -52.978
1512.3000, -52.964
1512.3200, -52.956
1512.3400, -52.947
1512.3600, -52.932
1512.3800, -52.920
1512.4000, -52.906
1512.4200, -52.890
1512.4400, -52.888
1512.4600, -52.873
1512.4800, -52.861
1512.5000, -52.851
1512.5200, -52.836
1512.5400, -52.818
1512.5600, -52.810
1512.5800, -52.797
1512.6000, -52.784
1512.6200, -52.773
1512.6400, -52.758
1512.6600, -52.748
1512.6800, -52.734
1512.7000, -52.723
1512.7200, -52.709
1512.7400, -52.702
1512.7600, -52.692
1512.7800, -52.678
1512.8000, -52.669
1512.8200, -52.652
1512.8400, -52.645
1512.8600, -52.632
1512.8800, -52.623
1512.9000, -52.613
1512.9200, -52.598
1512.9400, -52.588
1512.9600, -52.575
1512.9800, -52.565
1513.0000, -52.551
1513.0200, -52.535
1513.0400, -52.526
1513.0600, -52.518
1513.0800, -52.498
1513.1000, -52.487
1513.1200, -52.475
1513.1400, -52.464
1513.1600, -52.453
1513.1800, -52.443
1513.2000, -52.430
1513.2200, -52.418
1513.2400, -52.408
1513.2600, -52.390
1513.2800, -52.375
1513.3000, -52.364
1513.3200, -52.353
1513.3400, -52.339
1513.3600, -52.330
1513.3800, -52.318
1513.4000, -52.309
1513.4200, -52.291
1513.4400, -52.278
1513.4600, -52.265
1513.4800, -52.254
1513.5000, -52.238
1513.5200, -52.226
1513.5400, -52.216
1513.5600, -52.202
1513.5800, -52.186
1513.6000, -52.177
1513.6200, -52.162
1513.6400, -52.148
1513.6600, -52.135
1513.6800, -52.120
1513.7000, -52.108
1513.7200, -52.095
1513.7400, -52.083
1513.7600, -52.070
1513.7800, -52.057
1513.8000, -52.042
1513.8200, -52.034
1513.8400, -52.020
1513.8600, -52.008
1513.8800, -51.993
1513.9000, -51.982
1513.9200, -51.968
1513.9400, -51.956
1513.9600, -51.942
1513.9800, -51.929
1514.0000, -51.917
1514.0200, -51.905
1514.0400, -51.889
1514.0600, -51.874
1514.0800, -51.859
1514.1000, -51.848
1514.1200, -51.833
1514.1400, -51.822
1514.1600, -51.806
1514.1800, -51.795
1514.2000, -51.782
1514.2200, -51.770
1514.2400, -51.755
1514.2600, -51.740
1514.2800, -51.729
1514.3000, -51.716
1514.3200, -51.700
1514.3400, -51.687
1514.3600, -51.669
1514.3800, -51.661
1514.4000, -51.645
1514.4200, -51.630
1514.4400, -51.616
1514.4600, -51.604
1514.4800, -51.587
1514.5000, -51.575
1514.5200, -51.558
1514.5400, -51.546
1514.5600, -51.535
1514.5800, -51.520
1514.6000, -51.508
1514.6200, -51.497
1514.6400, -51.485
1514.6600, -51.468
1514.6800, -51.448
1514.7000, -51.436
1514.7200, -51.422
1514.7400, -51.407
1514.7600, -51.394
1514.7800, -51.378
1514.8000, -51.362
1514.8200, -51.353
1514.8400, -51.339
1514.8600, -51.324
1514.8800, -51.309
1514.9000, -51.293
1514.9200, -51.278
1514.9400, -51.266
1514.9600, -51.250
1514.9800, -51.234
1515.0000, -51.221
1515.0200, -51.205
1515.0400, -51.191
1515.0600, -51.174
1515.0800, -51.159
1515.1000, -51.143
1515.1200, -51.130
1515.1400, -51.113
1515.1600, -51.097
1515.1800, -51.081
1515.2000, -51.065
1515.2200, -51.054
1515.2400, -51.038
1515.2600, -51.019
1515.2800, -51.003
1515.3000, -50.986
1515.3200, -50.972
1515.3400, -50.959
1515.3600, -50.944
1515.3800, -50.931
1515.4000, -50.916
1515.4200, -50.900
1515.4400, -50.884
1515.4600, -50.866
1515.4800, -50.851
1515.5000, -50.838
1515.5200, -50.819
1515.5400, -50.808
1515.5600, -50.791
1515.5800, -50.773
1515.6000, -50.759
1515.6200, -50.743
1515.6400, -50.729
1515.6600, -50.712
1515.6800, -50.702
1515.7000, -50.684
1515.7200, -50.664
1515.7400, -50.651
1515.7600, -50.633
1515.7800, -50.623
1515.8000, -50.603
1515.8200, -50.591
1515.8400, -50.576
1515.8600, -50.559
1515.8800, -50.540
1515.9000, -50.526
1515.9200, -50.509
1515.9400, -50.493
1515.9600, -50.474
1515.9800, -50.458
1516.0000, -50.442
1516.0200, -50.427
1516.0400, -50.410
1516.0600, -50.393
1516.0800, -50.375
1516.1000, -50.359
1516.1200, -50.341
1516.1400, -50.328
1516.1600, -50.309
1516.1800, -50.291
1516.2000, -50.276
1516.2200, -50.258
1516.2400, -50.243
1516.2600, -50.228
1516.2800, -50.208
1516.3000, -50.195
1516.3200, -50.178
1516.3400, -50.164
1516.3600, -50.145
1516.3800, -50.127
1516.4000, -50.108
1516.4200, -50.090
1516.4400, -50.074
1516.4600, -50.055
1516.4800, -50.040
1516.5000, -50.018
1516.5200, -50.005
1516.5400, -49.993
1516.5600, -49.968
1516.5800, -49.949
1516.6000, -49.933
1516.6200, -49.915
1516.6400, -49.903
1516.6600, -49.886
1516.6800, -49.863
1516.7000, -49.844
1516.7200, -49.828
1516.7400, -49.808
1516.7600, -49.793
1516.7800, -49.777
1516.8000, -49.762
1516.8200, -49.742
1516.8400, -49.727
1516.8600, -49.711
1516.8800, -49.694
1516.9000, -49.677
1516.9200, -49.661
1516.9400, -49.643
1516.9600, -49.627
1516.9800, -49.609
1517.0000, -49.594
1517.0200, -49.575
1517.0400, -49.558
1517.0600, -49.538
1517.0800, -49.522
1517.1000, -49.502
1517.1200, -49.482
1517.1400, -49.466
1517.1600, -49.446
1517.1800, -49.428
1517.2000, -49.408
1517.2200, -49.389
1517.2400, -49.369
1517.2600, -49.351
1517.2800, -49.331
1517.3000, -49.310
1517.3200, -49.293
1517.3400, -49.276
1517.3600, -49.253
1517.3800, -49.233
1517.4000, -49.211
1517.4200, -49.192
1517.4400, -49.171
1517.4600, -49.153
1517.4800, -49.135
1517.5000, -49.116
1517.5200, -49.094
1517.5400, -49.077
1517.5600, -49.055
1517.5800, -49.034
1517.6000, -49.012
1517.6200, -48.992
1517.6400, -48.970
1517.6600, -48.950
1517.6800, -48.927
1517.7000, -48.905
1517.7200, -48.884
1517.7400, -48.864
1517.7600, -48.844
1517.7800, -48.820
1517.8000, -48.802
1517.8200, -48.780
1517.8400, -48.760
1517.8600, -48.739
1517.8800, -48.714
1517.9000, -48.691
1517.9200, -48.671
1517.9400, -48.651
1517.9600, -48.630
1517.9800, -48.607
1518.0000, -48.584
1518.0200, -48.562
1518.0400, -48.539
1518.0600, -48.518
1518.0800, -48.493
1518.1000, -48.470
1518.1200, -48.449
1518.1400, -48.425
1518.1600, -48.404
1518.1800, -48.381
1518.2000, -48.358
1518.2200, -48.334
1518.2400, -48.312
1518.2600, -48.290
1518.2800, -48.270
1518.3000, -48.250
1518.3200, -48.225
1518.3400, -48.202
1518.3600, -48.181
1518.3800, -48.158
1518.4000, -48.135
1518.4200, -48.110
1518.4400, -48.091
1518.4600, -48.059
1518.4800, -48.030
1518.5000, -48.025
1518.5200, -48.011
1518.5400, -47.984
1518.5600, -47.965
1518.5800, -47.945
1518.6000, -47.922
1518.6200, -47.904
1518.6400, -47.882
1518.6600, -47.866
1518.6800, -47.841
1518.7000, -47.814
1518.7200, -47.787
1518.7400, -47.768
1518.7600, -47.744
1518.7800, -47.720
1518.8000, -47.698
1518.8200, -47.676
1518.8400, -47.650
1518.8600, -47.624
1518.8800, -47.602
1518.9000, -47.576
1518.9200, -47.551
1518.9400, -47.533
1518.9600, -47.502
1518.9800, -47.476
1519.0000, -47.451
1519.0200, -47.422
1519.0400, -47.396
1519.0600, -47.370
1519.0800, -47.344
1519.1000, -47.318
1519.1200, -47.291
1519.1400, -47.264
1519.1600, -47.237
1519.1800, -47.207
1519.2000, -47.181
1519.2200, -47.154
1519.2400, -47.125
1519.2600, -47.097
1519.2800, -47.076
1519.3000, -47.047
1519.3200, -47.018
1519.3400, -46.992
1519.3600, -46.964
1519.3800, -46.935
1519.4000, -46.909
1519.4200, -46.882
1519.4400, -46.855
1519.4600, -46.830
1519.4800, -46.801
1519.5000, -46.774
1519.5200, -46.746
1519.5400, -46.720
1519.5600, -46.690
1519.5800, -46.660
1519.6000, -46.638
1519.6200, -46.616
1519.6400, -46.578
1519.6600, -46.548
1519.6800, -46.520
1519.7000, -46.510
1519.7200, -46.482
1519.7400, -46.440
1519.7600, -46.402
1519.7800, -46.373
1519.8000, -46.345
1519.8200, -46.315
1519.8400, -46.283
1519.8600, -46.254
1519.8800, -46.223
1519.9000, -46.193
1519.9200, -46.163
1519.9400, -46.136
1519.9600, -46.103
1519.9800, -46.073
1520.0000, -46.043
1520.0200, -46.011
1520.0400, -45.978
1520.0600, -45.946
1520.0800, -45.917
1520.1000, -45.882
1520.1200, -45.849
1520.1400, -45.817
1520.1600, -45.782
1520.1800, -45.750
1520.2000, -45.718
1520.2200, -45.687
1520.2400, -45.654
1520.2600, -45.623
1520.2800, -45.589
1520.3000, -45.557
1520.3200, -45.523
1520.3400, -45.489
1520.3600, -45.457
1520.3800, -45.425
1520.4000, -45.393
1520.4200, -45.358
1520.4400, -45.329
1520.4600, -45.291
1520.4800, -45.261
1520.5000, -45.228
1520.5200, -45.196
1520.5400, -45.164
1520.5600, -45.136
1520.5800, -45.096
1520.6000, -45.065
1520.6200, -45.031
